# other specrum h
# Spectrum #00065	4:39:53 PM 4/26/2018
# Wide scan: start 750nm, end 1249.8nm
# Monochromator settings: Grating: 1200 lines/mm; Slits: entrance 100um, exit 100um.
# DAQ device: PCI-6221; ADC bits: 16; Settling time: 10ms
# ADC input range: 10V max, -10V min. Sampling: 100 samples at 6.0006k/second.
# Wavelength (nm)    Signal (V)
750                  1.023683
750.42               1.03252
750.84               1.0378
751.26               1.020087
751.68               1.034756
752.1                1.03043
752.52               1.019853
752.94               1.014599
753.36               1.011065
753.78               1.031209
754.2                1.041958
754.62               1.017926
755.04               1.01012
755.46               1.002474
755.88               0.998268
756.3                1.014992
756.72               1.031907
757.14               1.053531
757.56               1.027876
757.98               1.040166
758.4                1.037456
758.82               1.014301
759.24               0.9971
759.66               0.963293
760.08               0.942233
760.5                0.912291
760.92               0.868001
761.34               0.861504
761.76               0.878987
762.18               0.88268
762.6                0.903097
763.02               0.911237
763.44               0.883644
763.86               0.874515
764.28               0.869251
764.7                0.878341
765.12               0.848536
765.54               0.880509
765.96               0.879954
766.38               0.869598
766.8                1.023105
767.22               1.114155
767.64               1.046284
768.06               0.996104
768.48               0.983593
768.9                0.961599
769.32               0.938972
769.74               0.932896
770.16               1.011428
770.58               1.049331
771                  0.989869
771.42               0.98149
771.84               0.960618
772.26               0.943996
772.68               0.946306
773.1                0.952557
773.52               0.942853
773.94               0.943045
774.36               0.940354
774.78               0.945537
775.2                0.933065
775.62               0.916981
776.04               0.927431
776.46               0.928651
776.88               0.933724
777.3                1.821401
777.72               10.318056
778.14               10.632169
778.56               8.36387
778.98               5.1969
779.4                3.431416
779.82               2.409642
780.24               1.803983
780.66               1.423305
781.08               1.242286
781.5                1.091138
781.92               1.032514
782.34               0.995812
782.76               0.967366
783.18               0.953229
783.6                0.910104
784.02               0.879097
784.44               0.886607
784.86               0.896545
785.28               0.905924
785.7                0.891177
786.12               0.8865
786.54               0.871442
786.96               0.871123
787.38               0.864243
787.8                0.877423
788.22               0.866499
788.64               0.892676
789.06               0.886623
789.48               0.870507
789.9                0.86951
790.32               0.857246
790.74               0.850489
791.16               0.860122
791.58               0.855409
792                  0.880237
792.42               0.884699
792.84               0.879993
793.26               0.876949
793.68               0.873749
794.1                0.873272
794.52               0.894263
794.94               0.883651
795.36               0.871046
795.78               0.839536
796.2                0.855101
796.62               0.859972
797.04               0.836768
797.46               0.865334
797.88               0.882372
798.3                0.89624
798.72               0.894805
799.14               0.879613
799.56               0.901737
799.98               0.894172
800.4                0.876147
800.82               0.862906
801.24               0.854098
801.66               0.854179
802.08               0.849834
802.5                0.867531
802.92               0.847614
803.34               0.837952
803.76               0.844365
804.18               0.881424
804.6                0.874817
805.02               0.87849
805.44               0.870367
805.86               0.854887
806.28               0.848717
806.7                0.863052
807.12               0.851424
807.54               0.828781
807.96               0.820424
808.38               0.83851
808.8                0.862075
809.22               0.845121
809.64               0.821174
810.06               0.835765
810.48               0.844015
810.9                0.833331
811.32               0.84751
811.74               0.861335
812.16               0.847763
812.58               0.851473
813                  0.834655
813.42               0.836648
813.84               0.833363
814.26               0.835995
814.68               0.844699
815.1                0.845102
815.52               0.842191
815.94               0.844544
816.36               0.828768
816.78               0.806891
817.2                0.792202
817.62               0.791309
818.04               0.787519
818.46               0.803989
818.88               0.84037
819.3                0.826541
819.72               0.841568
820.14               0.837686
820.56               0.830072
820.98               0.842262
821.4                0.836151
821.82               0.818655
822.24               0.818159
822.66               0.818697
823.08               0.79793
823.5                0.814582
823.92               0.823478
824.34               0.828236
824.76               0.832042
825.18               0.841282
825.6                0.81136
826.02               0.789508
826.44               0.78673
826.86               0.78589
827.28               0.799689
827.7                0.794727
828.12               0.786013
828.54               0.802078
828.96               0.806099
829.38               0.810996
829.8                0.795937
830.22               0.793464
830.64               0.801932
831.06               0.794532
831.48               0.785559
831.9                0.780898
832.32               0.798248
832.74               0.77863
833.16               0.756165
833.58               0.761377
834                  0.773934
834.42               0.784069
834.84               0.780408
835.26               0.796765
835.68               0.80298
836.1                0.796914
836.52               0.803288
836.94               0.798677
837.36               0.809383
837.78               0.802457
838.2                0.777195
838.62               0.793062
839.04               0.798274
839.46               0.795087
839.88               0.778308
840.3                0.792202
840.72               0.80052
841.14               0.79853
841.56               0.795097
841.98               0.801266
842.4                0.76903
842.82               0.775316
843.24               0.775663
843.66               0.778471
844.08               0.786026
844.5                0.777938
844.92               3.285341
845.34               5.376202
845.76               3.423371
846.18               2.314224
846.6                1.644433
847.02               1.283438
847.44               1.063585
847.86               0.950782
848.28               0.863029
848.7                0.810895
849.12               0.781012
849.54               0.777958
849.96               0.76091
850.38               0.766083
850.8                0.773031
851.22               0.770977
851.64               0.749327
852.06               0.723968
852.48               0.708305
852.9                0.725847
853.32               0.714984
853.74               0.724123
854.16               0.740749
854.58               0.739318
855                  0.736362
855.42               0.732853
855.84               0.737764
856.26               0.740182
856.68               0.735245
857.1                0.750197
857.52               0.750525
857.94               0.74836
858.36               0.723026
858.78               0.72746
859.2                0.719271
859.62               0.747188
860.04               0.723409
860.46               0.715445
860.88               0.722066
861.3                0.693597
861.72               0.712381
862.14               0.722579
862.56               0.734255
862.98               0.733532
863.4                0.730702
863.82               0.725882
864.24               0.726428
864.66               0.729271
865.08               0.723744
865.5                0.733947
865.92               0.733801
866.34               0.72867
866.76               0.733246
867.18               0.719054
867.6                0.733181
868.02               0.754312
868.44               0.833503
868.86               0.832195
869.28               0.791926
869.7                0.763487
870.12               0.741671
870.54               0.715932
870.96               0.714637
871.38               0.741704
871.8                0.73262
872.22               0.728271
872.64               0.725736
873.06               0.736956
873.48               0.750959
873.9                0.748386
874.32               0.747523
874.74               0.731412
875.16               0.736813
875.58               0.715069
876                  0.702525
876.42               0.69372
876.84               0.696654
877.26               0.700562
877.68               0.710895
878.1                0.705122
878.52               0.681083
878.94               0.694224
879.36               0.713193
879.78               0.724821
880.2                0.704041
880.62               0.687723
881.04               0.675504
881.46               0.689842
881.88               0.707591
882.3                0.718275
882.72               0.720122
883.14               0.71108
883.56               0.681722
883.98               0.693448
884.4                0.701701
884.82               0.69644
885.24               0.679976
885.66               0.678785
886.08               0.704557
886.5                0.714043
886.92               0.724347
887.34               0.712797
887.76               0.708789
888.18               0.712842
888.6                0.708085
889.02               0.700085
889.44               0.703191
889.86               0.70653
890.28               0.706569
890.7                0.704732
891.12               0.700503
891.54               0.716062
891.96               0.714011
892.38               0.712816
892.8                0.699812
893.22               0.700202
893.64               0.720034
894.06               0.719443
894.48               0.704593
894.9                0.71638
895.32               0.703242
895.74               0.726509
896.16               0.732876
896.58               0.716344
897                  0.707241
897.42               0.734453
897.84               0.707143
898.26               0.701396
898.68               0.700068
899.1                0.71648
899.52               0.71846
899.94               0.721345
900.36               0.705148
900.78               0.703677
901.2                0.70258
901.62               0.712028
902.04               0.695755
902.46               0.702227
902.88               0.72633
903.3                0.718989
903.72               0.721634
904.14               0.708016
904.56               0.688998
904.98               0.685062
905.4                0.690965
905.82               0.703093
906.24               0.702911
906.66               0.704434
907.08               0.697531
907.5                0.724565
907.92               0.72943
908.34               0.710343
908.76               0.707328
909.18               0.693195
909.6                0.695531
910.02               0.699098
910.44               0.707659
910.86               0.713034
911.28               0.724879
911.7                0.696044
912.12               0.689453
912.54               0.693724
912.96               0.716318
913.38               0.70961
913.8                0.718652
914.22               0.736131
914.64               0.728336
915.06               0.694532
915.48               0.691974
915.9                0.68108
916.32               0.679954
916.74               0.676562
917.16               0.669296
917.58               0.6844
918                  0.695768
918.42               0.687269
918.84               0.695658
919.26               0.69817
919.68               0.930943
920.1                1.227383
920.52               1.234802
920.94               1.194903
921.36               1.3092
921.78               1.483503
922.2                1.40575
922.62               1.301966
923.04               1.43431
923.46               1.547921
923.88               1.632311
924.3                1.786081
924.72               1.944746
925.14               1.85711
925.56               1.803415
925.98               1.951889
926.4                1.881639
926.82               1.800926
927.24               1.924634
927.66               2.105402
928.08               2.018111
928.5                1.887568
928.92               1.714988
929.34               1.689326
929.76               1.633298
930.18               1.553179
930.6                1.678523
931.02               1.616818
931.44               1.617931
931.86               1.458215
932.28               1.522094
932.7                1.538487
933.12               1.376321
933.54               1.182889
933.96               1.29296
934.38               1.456596
934.8                1.29725
935.22               1.281896
935.64               1.416447
936.06               1.317557
936.48               1.274662
936.9                1.195179
937.32               1.072004
937.74               1.103056
938.16               1.098382
938.58               1.067372
939                  1.159188
939.42               1.252474
939.84               1.238466
940.26               1.151425
940.68               1.196666
941.1                1.111507
941.52               1.134961
941.94               1.191304
942.36               1.068508
942.78               0.98223
943.2                0.965217
943.62               0.964782
944.04               0.895337
944.46               0.999362
944.88               1.071935
945.3                1.058785
945.72               1.051717
946.14               1.103208
946.56               1.138038
946.98               1.076664
947.4                1.011461
947.82               0.994614
948.24               0.988191
948.66               0.959239
949.08               0.945258
949.5                0.940734
949.92               0.992404
950.34               0.988055
950.76               0.963027
951.18               0.909792
951.6                0.943252
952.02               0.89868
952.44               0.91875
952.86               0.964571
953.28               0.950074
953.7                0.907988
954.12               0.877663
954.54               0.856571
954.96               0.855786
955.38               0.868397
955.8                0.868154
956.22               0.885611
956.64               0.910656
957.06               0.880029
957.48               0.853621
957.9                0.841149
958.32               0.817539
958.74               0.81677
959.16               0.828726
959.58               0.828164
960                  0.803087
960.42               0.78761
960.84               0.778136
961.26               0.812362
961.68               0.822845
962.1                0.801542
962.52               0.799653
962.94               0.786432
963.36               0.806099
963.78               0.82402
964.2                0.788596
964.62               0.774557
965.04               0.750674
965.46               0.743359
965.88               0.762137
966.3                0.765259
966.72               0.770029
967.14               0.765054
967.56               0.762111
967.98               0.750567
968.4                0.746984
968.82               0.761666
969.24               0.767079
969.66               0.772756
970.08               0.785951
970.5                0.765807
970.92               0.745897
971.34               0.775443
971.76               0.770162
972.18               0.852524
972.6                1.042269
973.02               1.017439
973.44               0.900644
973.86               0.840675
974.28               0.796862
974.7                0.773544
975.12               0.740749
975.54               0.729384
975.96               0.755542
976.38               0.756376
976.8                0.736066
977.22               0.725529
977.64               0.740412
978.06               0.731455
978.48               0.723922
978.9                0.754302
979.32               0.742901
979.74               0.733204
980.16               0.714712
980.58               0.689385
981                  0.687739
981.42               0.669721
981.84               0.677948
982.26               0.708315
982.68               0.705118
983.1                0.726616
983.52               0.724013
983.94               0.710444
984.36               0.703197
984.78               0.717535
985.2                0.699617
985.62               0.712784
986.04               0.688648
986.46               0.689667
986.88               0.676569
987.3                0.672077
987.72               0.676588
988.14               0.676345
988.56               0.694149
988.98               0.700344
989.4                0.690196
989.82               0.68266
990.24               0.703113
990.66               0.69569
991.08               0.69016
991.5                0.716915
991.92               0.69188
992.34               0.705777
992.76               0.714452
993.18               0.725548
993.6                0.705534
994.02               0.70716
994.44               0.688424
994.86               0.685805
995.28               0.671769
995.7                0.708737
996.12               0.71857
996.54               0.712261
996.96               0.714527
997.38               0.709191
997.8                0.696969
998.22               0.700062
998.64               0.699968
999.06               0.698021
999.48               0.747467
999.9                0.828369
1000.32              0.835781
1000.74              0.806076
1001.16              0.801873
1001.58              0.790706
1002                 0.758151
1002.42              0.765953
1002.84              0.761182
1003.26              0.758365
1003.68              0.777822
1004.1               0.77678
1004.52              0.835164
1004.94              0.845585
1005.36              0.856759
1005.78              0.814177
1006.2               0.821579
1006.62              0.850752
1007.04              0.928612
1007.46              1.000112
1007.88              0.914823
1008.3               0.893413
1008.72              0.895532
1009.14              0.870173
1009.56              0.829878
1009.98              0.80862
1010.4               0.796924
1010.82              0.785679
1011.24              0.801623
1011.66              0.797826
1012.08              0.788525
1012.5               0.793017
1012.92              0.780866
1013.34              0.767631
1013.76              0.743469
1014.18              0.763957
1014.6               0.776108
1015.02              0.790209
1015.44              0.78773
1015.86              0.785377
1016.28              0.75917
1016.7               0.73509
1017.12              0.715666
1017.54              0.72278
1017.96              0.754893
1018.38              0.758638
1018.8               0.766427
1019.22              0.769987
1019.64              0.788142
1020.06              0.771902
1020.48              0.758447
1020.9               0.747792
1021.32              0.75549
1021.74              0.739773
1022.16              0.704881
1022.58              0.710395
1023                 0.736702
1023.42              0.754299
1023.84              0.769818
1024.26              0.763221
1024.68              0.768936
1025.1               0.76977
1025.52              0.739451
1025.94              0.734681
1026.36              0.731958
1026.78              0.739094
1027.2               0.725444
1027.62              0.7112
1028.04              0.71601
1028.46              0.721667
1028.88              0.739185
1029.3               0.745673
1029.72              0.74908
1030.14              0.73899
1030.56              0.756658
1030.98              0.740733
1031.4               0.723254
1031.82              0.723825
1032.24              0.710457
1032.66              0.728336
1033.08              0.71466
1033.5               0.709341
1033.92              0.733496
1034.34              0.731883
1034.76              0.711619
1035.18              0.700912
1035.6               0.689953
1036.02              0.695505
1036.44              0.70813
1036.86              0.715117
1037.28              0.724974
1037.7               0.718366
1038.12              0.742116
1038.54              0.725493
1038.96              0.736573
1039.38              0.735492
1039.8               0.726087
1040.22              0.716088
1040.64              0.706858
1041.06              0.707371
1041.48              0.721462
1041.9               0.72264
1042.32              0.731903
1042.74              0.731906
1043.16              0.735563
1043.58              0.743381
1044                 0.730403
1044.42              0.741769
1044.84              0.750716
1045.26              0.725814
1045.68              0.731552
1046.1               0.70653
1046.52              0.705978
1046.94              0.717292
1047.36              0.71897
1047.78              0.711431
1048.2               0.709681
1048.62              0.702369
1049.04              0.721361
1049.46              0.707575
1049.88              0.712307
1050.3               0.718392
1050.72              0.705164
1051.14              0.706339
1051.56              0.703554
1051.98              0.709191
1052.4               0.700555
1052.82              0.701655
1053.24              0.684254
1053.66              0.700552
1054.08              0.695885
1054.5               0.718431
1054.92              0.725532
1055.34              0.718564
1055.76              0.715705
1056.18              0.698391
1056.6               0.698507
1057.02              0.717308
1057.44              0.708101
1057.86              0.688674
1058.28              0.710584
1058.7               0.692552
1059.12              0.703541
1059.54              0.71293
1059.96              0.708432
1060.38              0.693665
1060.8               0.691075
1061.22              0.692536
1061.64              0.688979
1062.06              0.699539
1062.48              0.683059
1062.9               0.686227
1063.32              0.690336
1063.74              0.693217
1064.16              0.690787
1064.58              0.695567
1065                 0.699432
1065.42              0.697706
1065.84              0.716286
1066.26              0.714582
1066.68              0.723656
1067.1               0.698709
1067.52              0.707627
1067.94              0.704051
1068.36              0.711035
1068.78              0.69988
1069.2               0.700529
1069.62              0.691861
1070.04              0.68612
1070.46              0.687541
1070.88              0.705248
1071.3               0.698024
1071.72              0.679843
1072.14              0.678152
1072.56              0.703528
1072.98              0.69412
1073.4               0.705819
1073.82              0.708253
1074.24              0.696774
1074.66              0.668926
1075.08              0.676072
1075.5               0.693987
1075.92              0.689485
1076.34              0.696995
1076.76              0.692834
1077.18              0.688719
1077.6               0.691124
1078.02              0.695875
1078.44              0.694496
1078.86              0.698637
1079.28              0.728761
1079.7               0.715104
1080.12              0.714348
1080.54              0.710431
1080.96              0.716318
1081.38              0.731523
1081.8               0.732123
1082.22              0.70702
1082.64              0.695759
1083.06              0.697787
1083.48              0.713949
1083.9               0.71393
1084.32              0.68697
1084.74              0.684267
1085.16              0.694655
1085.58              0.686694
1086                 0.689738
1086.42              0.679253
1086.84              0.666475
1087.26              0.688226
1087.68              0.695944
1088.1               0.702201
1088.52              0.712988
1088.94              0.69768
1089.36              0.687486
1089.78              0.683627
1090.2               0.680843
1090.62              0.670905
1091.04              0.669789
1091.46              0.692108
1091.88              0.718389
1092.3               0.705332
1092.72              0.716234
1093.14              0.710983
1093.56              0.693104
1093.98              0.691481
1094.4               0.688447
1094.82              0.696242
1095.24              0.705083
1095.66              0.713845
1096.08              0.703411
1096.5               0.69778
1096.92              0.713044
1097.34              0.716023
1097.76              0.688164
1098.18              0.697605
1098.6               0.701367
1099.02              0.711508
1099.44              0.696417
1099.86              0.683712
1100.28              0.698621
1100.7               0.700068
1101.12              0.691507
1101.54              0.679392
1101.96              0.694873
1102.38              0.709207
1102.8               0.727755
1103.22              0.724561
1103.64              0.689644
1104.06              0.685571
1104.48              0.681119
1104.9               0.690378
1105.32              0.729413
1105.74              0.709766
1106.16              0.712576
1106.58              0.724195
1107                 0.707416
1107.42              0.721056
1107.84              0.712894
1108.26              0.702249
1108.68              0.696859
1109.1               0.713238
1109.52              0.730144
1109.94              0.708497
1110.36              0.712287
1110.78              0.707864
1111.2               0.724892
1111.62              0.72795
1112.04              0.733496
1112.46              0.709574
1112.88              0.718872
1113.3               0.73767
1113.72              0.710824
1114.14              0.702616
1114.56              0.703204
1114.98              0.710739
1115.4               0.706183
1115.82              0.712544
1116.24              0.715546
1116.66              0.70136
1117.08              0.703132
1117.5               0.708536
1117.92              0.706777
1118.34              0.719869
1118.76              0.708678
1119.18              0.719995
1119.6               0.71023
1120.02              0.715893
1120.44              0.7027
1120.86              0.697245
1121.28              0.6967
1121.7               0.708195
1122.12              0.715698
1122.54              0.701909
1122.96              0.704427
1123.38              0.710356
1123.8               0.702571
1124.22              0.714358
1124.64              0.734249
1125.06              0.732798
1125.48              0.736264
1125.9               0.729287
1126.32              0.725915
1126.74              0.727378
1127.16              0.723465
1127.58              0.737988
1128                 0.700662
1128.42              0.709272
1128.84              0.729761
1129.26              0.737076
1129.68              0.724548
1130.1               0.709431
1130.52              0.711233
1130.94              0.711349
1131.36              0.708357
1131.78              0.712427
1132.2               0.718363
1132.62              0.714218
1133.04              0.707432
1133.46              0.705732
1133.88              0.717506
1134.3               0.702408
1134.72              0.727148
1135.14              0.732214
1135.56              0.714024
1135.98              0.728362
1136.4               0.704609
1136.82              0.696518
1137.24              0.692224
1137.66              0.687515
1138.08              0.696872
1138.5               0.721303
1138.92              0.712167
1139.34              0.722617
1139.76              0.720086
1140.18              0.706981
1140.6               0.715779
1141.02              0.710087
1141.44              0.720914
1141.86              0.719486
1142.28              0.732857
1142.7               0.731104
1143.12              0.718713
1143.54              0.725347
1143.96              0.733311
1144.38              0.720979
1144.8               0.713267
1145.22              0.726778
1145.64              0.719891
1146.06              0.721796
1146.48              0.734875
1146.9               0.714319
1147.32              0.72118
1147.74              0.731731
1148.16              0.721352
1148.58              0.727193
1149                 0.724448
1149.42              0.703531
1149.84              0.708273
1150.26              0.705702
1150.68              0.705819
1151.1               0.69422
1151.52              0.701974
1151.94              0.719904
1152.36              0.721274
1152.78              0.713037
1153.2               0.725146
1153.62              0.708669
1154.04              0.702548
1154.46              0.690082
1154.88              0.679395
1155.3               0.709438
1155.72              0.684091
1156.14              0.711161
1156.56              0.708487
1156.98              0.707127
1157.4               0.709464
1157.82              0.711697
1158.24              0.697927
1158.66              0.709954
1159.08              0.693811
1159.5               0.71391
1159.92              0.714968
1160.34              0.736427
1160.76              0.725762
1161.18              0.739117
1161.6               0.73225
1162.02              0.730416
1162.44              0.728002
1162.86              0.721566
1163.28              0.714452
1163.7               0.715942
1164.12              0.700591
1164.54              0.725727
1164.96              0.717068
1165.38              0.725327
1165.8               0.740837
1166.22              0.708519
1166.64              0.719706
1167.06              0.698296
1167.48              0.700354
1167.9               0.712239
1168.32              0.702068
1168.74              0.701438
1169.16              0.717733
1169.58              0.720248
1170                 0.718486
1170.42              0.724561
1170.84              0.754809
1171.26              0.737494
1171.68              0.72622
1172.1               0.724101
1172.52              0.72684
1172.94              0.717837
1173.36              0.733042
1173.78              0.719122
1174.2               0.703463
1174.62              0.700237
1175.04              0.698199
1175.46              0.7154
1175.88              0.707085
1176.3               0.706731
1176.72              0.725957
1177.14              0.709986
1177.56              0.716766
1177.98              0.71328
1178.4               0.711249
1178.82              0.724032
1179.24              0.710863
1179.66              0.704972
1180.08              0.706734
1180.5               0.720654
1180.92              0.737257
1181.34              0.692692
1181.76              0.720768
1182.18              0.692179
1182.6               0.687895
1183.02              0.679639
1183.44              0.704453
1183.86              0.713644
1184.28              0.703194
1184.7               0.712917
1185.12              0.705579
1185.54              0.702759
1185.96              0.695957
1186.38              0.694243
1186.8               0.696547
1187.22              0.721017
1187.64              0.712933
1188.06              0.709039
1188.48              0.692968
1188.9               0.719813
1189.32              0.707497
1189.74              0.734006
1190.16              0.743849
1190.58              0.740133
1191                 0.736556
1191.42              0.72572
1191.84              0.730195
1192.26              0.725298
1192.68              0.71182
1193.1               0.72989
1193.52              0.730961
1193.94              0.729021
1194.36              0.71883
1194.78              0.72498
1195.2               0.72598
1195.62              0.733561
1196.04              0.720209
1196.46              0.721975
1196.88              0.740418
1197.3               0.722335
1197.72              0.71574
1198.14              0.729871
1198.56              0.720563
1198.98              0.703927
1199.4               0.725863
1199.82              0.723981
1200.24              0.736702
1200.66              0.734979
1201.08              0.722147
1201.5               0.699195
1201.92              0.727365
1202.34              0.71857
1202.76              0.716464
1203.18              0.709149
1203.6               0.708042
1204.02              0.721725
1204.44              0.717727
1204.86              0.729063
1205.28              0.732393
1205.7               0.740318
1206.12              0.722942
1206.54              0.724484
1206.96              0.736294
1207.38              0.716571
1207.8               0.707481
1208.22              0.70086
1208.64              0.717081
1209.06              0.695087
1209.48              0.67886
1209.9               0.69484
1210.32              0.689557
1210.74              0.693227
1211.16              0.699802
1211.58              0.689884
1212                 0.685039
1212.42              0.701847
1212.84              0.701691
1213.26              0.699552
1213.68              0.706387
1214.1               0.712459
1214.52              0.69411
1214.94              0.703947
1215.36              0.708653
1215.78              0.710278
1216.2               0.714319
1216.62              0.722936
1217.04              0.718136
1217.46              0.71907
1217.88              0.71734
1218.3               0.705777
1218.72              0.714695
1219.14              0.70765
1219.56              0.713699
1219.98              0.709775
1220.4               0.718376
1220.82              0.74921
1221.24              0.73273
1221.66              0.716659
1222.08              0.722449
1222.5               0.732013
1222.92              0.69362
1223.34              0.70061
1223.76              0.704631
1224.18              0.71159
1224.6               0.705664
1225.02              0.711995
1225.44              0.70652
1225.86              0.72153
1226.28              0.836972
1226.7               0.905966
1227.12              0.875206
1227.54              0.878306
1227.96              0.838076
1228.38              0.882258
1228.8               0.893436
1229.22              0.878909
1229.64              0.869588
1230.06              0.871941
1230.48              0.882119
1230.9               0.871487
1231.32              0.852063
1231.74              0.902438
1232.16              0.91811
1232.58              0.86411
1233                 0.92539
1233.42              0.925422
1233.84              0.93706
1234.26              0.922397
1234.68              0.915754
1235.1               0.922806
1235.52              0.892206
1235.94              0.840695
1236.36              0.905531
1236.78              0.983771
1237.2               1.068985
1237.62              1.053132
1238.04              0.948731
1238.46              0.931056
1238.88              0.903766
1239.3               0.955517
1239.72              0.965016
1240.14              0.992063
1240.56              0.962663
1240.98              0.90619
1241.4               0.896463
1241.82              0.894081
1242.24              0.863876
1242.66              0.920749
1243.08              1.016566
1243.5               1.00805
1243.92              0.964098
1244.34              0.935658
1244.76              0.915654
1245.18              0.901215
1245.6               0.959551
1246.02              0.922897
1246.44              0.859193
1246.86              0.861644
1247.28              0.93792
1247.7               0.898709
1248.12              0.819129
1248.54              0.815556
1248.96              0.836187
1249.38              0.856623
1249.8               0.886331
